ms,pos,steps,strain,g
0,0.000,200,84.00,3.773
2,0.000,200,56.00,3.644
39,0.000,200,-77.00,3.030
131,0.000,200,-1259.00,-2.427
223,0.000,200,-3218.00,-11.472
314,0.000,200,-5282.00,-21.001
406,0.000,200,-7570.00,-31.565
497,0.000,200,-9513.00,-40.536
590,0.000,200,-11442.00,-49.442
681,0.000,200,-13442.00,-58.676
773,0.000,200,-15239.00,-66.973
864,0.000,200,-17121.00,-75.662
956,0.000,200,-19345.00,-85.930
1047,0.000,200,-21440.00,-95.602
1139,0.000,200,-23820.00,-106.591
1232,0.000,200,-25998.00,-116.646
1323,0.000,200,-27855.00,-125.220
1415,0.000,200,-29985.00,-135.054
1506,0.000,200,-32100.00,-144.819
1598,0.000,200,-33835.00,-152.830
1689,0.000,200,-35616.00,-161.052
1782,0.000,200,-37449.00,-169.515
1873,0.000,200,-39363.00,-178.352
1965,0.000,200,-41294.00,-187.268
2056,0.000,200,-42566.00,-193.140
2148,0.000,200,-43378.00,-196.889
2239,0.000,200,-45228.00,-205.431
2331,0.000,200,-47048.00,-213.834
2424,0.000,200,-48734.00,-221.618
2515,0.000,200,-50541.00,-229.961
2607,0.000,200,-51437.00,-234.097
2698,0.000,200,-52289.00,-238.031
2790,0.000,200,-54177.00,-246.748
2881,0.000,200,-56306.00,-256.577
2973,0.000,200,-58548.00,-266.929
3065,0.000,200,-60923.00,-277.894
3157,0.000,200,-63272.00,-288.739
3248,0.000,200,-65861.00,-300.693
3340,0.000,200,-68427.00,-312.540
3431,0.000,200,-70491.00,-322.069
3523,0.000,200,-72696.00,-332.250
3614,0.000,200,-75244.00,-344.014
3707,0.000,200,-77373.00,-353.843
3799,0.000,200,-79471.00,-363.529
3890,0.000,200,-81860.00,-374.559
3982,0.000,200,-84047.00,-384.657
4073,0.000,200,-86297.00,-395.045
4165,0.000,200,-88660.00,-405.955
4257,0.000,200,-90916.00,-416.371
4349,0.000,200,-93416.00,-427.913
4440,0.000,200,-95825.00,-439.035
4532,0.000,200,-97809.00,-448.195
4623,0.000,200,-100179.00,-459.138
4715,0.000,200,-102629.00,-470.449
4806,0.000,200,-104671.00,-479.877
4899,0.000,200,-106866.00,-490.011
4991,0.000,200,-109135.00,-500.487
5082,0.000,200,-111241.00,-510.210
5174,0.000,200,-113559.00,-520.913
5265,0.000,200,-115919.00,-531.809
5357,0.000,200,-118302.00,-542.811
5448,0.000,200,-120974.00,-555.147
5541,0.000,200,-123155.00,-565.217
5632,0.000,200,-125119.00,-574.285
5724,0.000,200,-127708.00,-586.238
5815,0.000,200,-130094.00,-597.254
5907,0.000,200,-132156.00,-606.774
5998,0.000,200,-134477.00,-617.490
6091,0.000,200,-136580.00,-627.200
6182,0.000,200,-138684.00,-636.914
6274,0.000,200,-141075.00,-647.953
6366,0.000,200,-143294.00,-658.198
6457,0.000,200,-145690.00,-669.260
6549,0.000,200,-148296.00,-681.292
6640,0.000,200,-150429.00,-691.140
6733,0.000,200,-152680.00,-701.533
6824,0.000,200,-155284.00,-713.555
6916,0.000,200,-157441.00,-723.514
7007,0.000,200,-159586.00,-733.418
7099,0.000,200,-161809.00,-743.681
7190,0.000,200,-163966.00,-753.640
7282,0.000,200,-166349.00,-764.642
7375,0.000,200,-168645.00,-775.243
7466,0.000,200,-170865.00,-785.492
7558,0.000,200,-173519.00,-797.746
7649,0.000,200,-175849.00,-808.503
7741,0.000,200,-177679.00,-816.952
7832,0.000,200,-180108.00,-828.167
7924,0.000,200,-182536.00,-839.377
8016,0.000,200,-184547.00,-848.662
8108,0.000,200,-186713.00,-858.662
8199,0.000,200,-188840.00,-868.482
8291,0.000,200,-190922.00,-878.095
8382,0.000,200,-192844.00,-886.969
8474,0.000,200,-192933.00,-887.380
8567,0.000,200,-190840.00,-877.716
8658,0.000,200,-187890.00,-864.096
8750,0.000,200,-184726.00,-849.488
8841,0.000,200,-181412.00,-834.187
8933,0.000,200,-178549.00,-820.969
9024,0.000,200,-175681.00,-807.728
9116,0.000,200,-172324.00,-792.229
9208,0.000,200,-169369.00,-778.585
9300,0.000,200,-166663.00,-766.092
9391,0.000,200,-163447.00,-751.244
9483,0.000,200,-160491.00,-737.596
9575,0.000,200,-157684.00,-724.636
9666,0.000,200,-154897.00,-711.769
9758,0.000,200,-152307.00,-699.811
9850,0.000,200,-149630.00,-687.451
9942,0.000,200,-146982.00,-675.225
10033,0.000,200,-144574.00,-664.108
10125,0.000,200,-141780.00,-651.208
10216,0.000,200,-138852.00,-637.689
10308,0.000,200,-136487.00,-626.770
10399,0.000,200,-133832.00,-614.512
10492,0.000,200,-130917.00,-601.054
10584,0.000,200,-128369.00,-589.290
10675,0.000,200,-125695.00,-576.944
10767,0.000,200,-123123.00,-565.069
10858,0.000,200,-120816.00,-554.418
10950,0.000,200,-118272.00,-542.672
11042,0.000,200,-115858.00,-531.527
11134,0.000,200,-113522.00,-520.742
11225,0.000,200,-110800.00,-508.174
11317,0.000,200,-108266.00,-496.475
11408,0.000,200,-106086.00,-486.410
11500,0.000,200,-103451.00,-474.244
11591,0.000,200,-100753.00,-461.788
11684,0.000,200,-98324.00,-450.573
11775,0.000,200,-95777.00,-438.814
11867,0.000,200,-93397.00,-427.825
11959,0.000,200,-91037.00,-416.929
12050,0.000,200,-88525.00,-405.331
12142,0.000,200,-86333.00,-395.211
12233,0.000,200,-84059.00,-384.712
12326,0.000,200,-81421.00,-372.533
12417,0.000,200,-79174.00,-362.158
12509,0.000,200,-76950.00,-351.890
12600,0.000,200,-74334.00,-339.812
12692,0.000,200,-71802.00,-328.122
12783,0.000,200,-69337.00,-316.741
12876,0.000,200,-66929.00,-305.623
12967,0.000,200,-64690.00,-295.286
13059,0.000,200,-62215.00,-283.859
13151,0.000,200,-59767.00,-272.557
13242,0.000,200,-57606.00,-262.579
13334,0.000,200,-54987.00,-250.488
13425,0.000,200,-52344.00,-238.285
13518,0.000,200,-50200.00,-228.386
13609,0.000,200,-47818.00,-217.389
13701,0.000,200,-45147.00,-205.057
13792,0.000,200,-42887.00,-194.622
13884,0.000,200,-40653.00,-184.308
13975,0.000,200,-38544.00,-174.571
14067,0.000,200,-36558.00,-165.402
14159,0.000,200,-34451.00,-155.674
14251,0.000,200,-32498.00,-146.657
14343,0.000,200,-30604.00,-137.912
14434,0.000,200,-28334.00,-127.432
14526,0.000,200,-26255.00,-117.833
14617,0.000,200,-24457.00,-109.532
14710,0.000,200,-22294.00,-99.545
14801,0.000,200,-20193.00,-89.845
14893,0.000,200,-18476.00,-81.918
14984,0.000,200,-16852.00,-74.420
15076,0.000,200,-15459.00,-67.988
15167,0.000,200,-14485.00,-63.491
15259,0.000,200,-13809.00,-60.370
15351,0.000,200,-12671.00,-55.116
15443,0.000,200,-11141.00,-48.052
15534,0.000,200,-9648.00,-41.159
15626,0.000,200,-8361.00,-35.217
15717,0.000,200,-7446.00,-30.993
15809,0.000,200,-6864.00,-28.305
15901,0.000,200,-5860.00,-23.670
15993,0.000,200,-4269.00,-16.324
16085,0.000,200,-2556.00,-8.416
16176,0.000,200,-1070.00,-1.555
16268,0.000,200,377.00,5.126
16359,0.000,200,1849.00,11.922
16451,0.000,200,3312.00,18.677
16542,0.000,200,4879.00,25.912
16635,0.000,200,6385.00,32.865
16726,0.000,200,7566.00,38.317
16818,0.000,200,8490.00,42.583
16910,0.000,200,8625.00,43.207
17001,0.000,200,8492.00,42.593
17093,0.000,200,8386.00,42.103
17185,0.000,200,8357.00,41.969
17277,0.000,200,8280.00,41.614
17368,0.000,200,8238.00,41.420
17460,0.000,200,8182.00,41.161
17551,0.000,200,8118.00,40.866
17643,0.000,200,8067.00,40.630
17734,0.000,200,7999.00,40.316
17827,0.000,200,7935.00,40.021
17918,0.000,200,7882.00,39.776
18010,0.000,200,7847.00,39.615
18102,0.000,200,7910.00,39.906
18193,0.000,200,7886.00,39.795
18285,0.000,200,7747.00,39.153
18376,0.000,200,7706.00,38.964
18469,0.000,200,7740.00,39.121
18560,0.000,200,7716.00,39.010
18652,0.000,200,7646.00,38.687
18743,0.000,200,7630.00,38.613
18835,0.000,200,7602.00,38.484
18926,0.000,200,7549.00,38.239
19019,0.000,200,7504.00,38.031
19110,0.000,200,7525.00,38.128
19202,0.000,200,7494.00,37.985
19294,0.000,200,7505.00,38.036
19385,0.000,200,7494.00,37.985
19477,0.000,200,7426.00,37.671
19568,0.000,200,7429.00,37.685
19661,0.000,200,7441.00,37.740
19752,0.000,200,7411.00,37.602
19844,0.000,200,7422.00,37.653
19935,0.000,200,7423.00,37.657
20027,0.000,200,7366.00,37.394
20118,0.000,200,7341.00,37.279
20210,0.000,200,7318.00,37.172
20303,0.000,200,7287.00,37.029